#  E (eV)   dosup(E)     dosdw(E)   Int dos(E)
  5.000 -0.1043E-05 -0.5268E-06 -0.1569E-06
  5.100 -0.8140E-05 -0.4519E-05 -0.1423E-05
  5.200 -0.4604E-04 -0.2824E-04 -0.8850E-05
  5.300 -0.1833E-03 -0.1256E-03 -0.3974E-04
  5.400 -0.4809E-03 -0.3781E-03 -0.1256E-03
  5.500 -0.6628E-03 -0.6665E-03 -0.2586E-03
  5.600  0.3134E-03 -0.1898E-03 -0.2462E-03
  5.700  0.3548E-02  0.2333E-02  0.3419E-03
  5.800  0.7932E-02  0.6682E-02  0.1803E-02
  5.900  0.1011E-01  0.9835E-02  0.3798E-02
  6.000  0.9838E-02  0.9901E-02  0.5772E-02
  6.100  0.1299E-01  0.1125E-01  0.8196E-02
  6.200  0.2315E-01  0.1956E-01  0.1247E-01
  6.300  0.3270E-01  0.3062E-01  0.1880E-01
  6.400  0.3202E-01  0.3336E-01  0.2534E-01
  6.500  0.2552E-01  0.2721E-01  0.3061E-01
  6.600  0.2515E-01  0.2411E-01  0.3554E-01
  6.700  0.3050E-01  0.2880E-01  0.4147E-01
  6.800  0.3141E-01  0.3189E-01  0.4779E-01
  6.900  0.2851E-01  0.2902E-01  0.5355E-01
  7.000  0.3204E-01  0.2965E-01  0.5972E-01
  7.100  0.4062E-01  0.3789E-01  0.6757E-01
  7.200  0.4330E-01  0.4321E-01  0.7622E-01
  7.300  0.4299E-01  0.4196E-01  0.8471E-01
  7.400  0.5258E-01  0.4708E-01  0.9468E-01
  7.500  0.6693E-01  0.6210E-01  0.1076E+00
  7.600  0.6702E-01  0.6897E-01  0.1212E+00
  7.700  0.5177E-01  0.5729E-01  0.1321E+00
  7.800  0.3738E-01  0.4063E-01  0.1399E+00
  7.900  0.3113E-01  0.3207E-01  0.1462E+00
  8.000  0.3160E-01  0.3038E-01  0.1524E+00
  8.100  0.4196E-01  0.3587E-01  0.1602E+00
  8.200  0.6058E-01  0.5127E-01  0.1714E+00
  8.300  0.7699E-01  0.6819E-01  0.1859E+00
  8.400  0.8992E-01  0.7924E-01  0.2028E+00
  8.500  0.1041E+00  0.9193E-01  0.2224E+00
  8.600  0.1087E+00  0.1062E+00  0.2439E+00
  8.700  0.9126E-01  0.1034E+00  0.2634E+00
  8.800  0.6247E-01  0.7791E-01  0.2774E+00
  8.900  0.4300E-01  0.4979E-01  0.2867E+00
  9.000  0.4355E-01  0.3714E-01  0.2948E+00
  9.100  0.6799E-01  0.4392E-01  0.3059E+00
  9.200  0.1105E+00  0.6953E-01  0.3239E+00
  9.300  0.1468E+00  0.1064E+00  0.3493E+00
  9.400  0.1533E+00  0.1354E+00  0.3781E+00
  9.500  0.1356E+00  0.1394E+00  0.4056E+00
  9.600  0.1200E+00  0.1235E+00  0.4300E+00
  9.700  0.1214E+00  0.1105E+00  0.4532E+00
  9.800  0.1415E+00  0.1099E+00  0.4783E+00
  9.900  0.1875E+00  0.1116E+00  0.5083E+00
 10.000  0.2698E+00  0.1167E+00  0.5469E+00
 10.100  0.3765E+00  0.1422E+00  0.5988E+00
 10.200  0.4639E+00  0.1935E+00  0.6645E+00
 10.300  0.4955E+00  0.2585E+00  0.7399E+00
 10.400  0.4850E+00  0.3211E+00  0.8205E+00
 10.500  0.4825E+00  0.3677E+00  0.9055E+00
 10.600  0.5295E+00  0.3938E+00  0.9979E+00
 10.700  0.6314E+00  0.4096E+00  0.1102E+01
 10.800  0.7472E+00  0.4323E+00  0.1220E+01
 10.900  0.8202E+00  0.4691E+00  0.1349E+01
 11.000  0.8429E+00  0.5089E+00  0.1484E+01
 11.100  0.8627E+00  0.5337E+00  0.1624E+01
 11.200  0.8974E+00  0.5520E+00  0.1769E+01
 11.300  0.8975E+00  0.5979E+00  0.1918E+01
 11.400  0.8403E+00  0.6771E+00  0.2070E+01
 11.500  0.7805E+00  0.7589E+00  0.2224E+01
 11.600  0.7586E+00  0.8223E+00  0.2382E+01
 11.700  0.7532E+00  0.8527E+00  0.2543E+01
 11.800  0.7511E+00  0.8282E+00  0.2700E+01
 11.900  0.7773E+00  0.7684E+00  0.2855E+01
 12.000  0.8455E+00  0.7344E+00  0.3013E+01
 12.100  0.9408E+00  0.7385E+00  0.3181E+01
 12.200  0.1034E+01  0.7343E+00  0.3358E+01
 12.300  0.1097E+01  0.7099E+00  0.3538E+01
 12.400  0.1130E+01  0.7100E+00  0.3722E+01
 12.500  0.1164E+01  0.7650E+00  0.3915E+01
 12.600  0.1240E+01  0.8629E+00  0.4126E+01
 12.700  0.1368E+01  0.9724E+00  0.4360E+01
 12.800  0.1491E+01  0.1055E+01  0.4614E+01
 12.900  0.1516E+01  0.1090E+01  0.4875E+01
 13.000  0.1406E+01  0.1099E+01  0.5126E+01
 13.100  0.1216E+01  0.1113E+01  0.5358E+01
 13.200  0.1027E+01  0.1153E+01  0.5576E+01
 13.300  0.8874E+00  0.1231E+01  0.5788E+01
 13.400  0.8288E+00  0.1344E+01  0.6006E+01
 13.500  0.8757E+00  0.1435E+01  0.6237E+01
 13.600  0.1012E+01  0.1410E+01  0.6479E+01
 13.700  0.1161E+01  0.1226E+01  0.6717E+01
 13.800  0.1243E+01  0.9684E+00  0.6939E+01
 13.900  0.1248E+01  0.7956E+00  0.7143E+01
 14.000  0.1218E+01  0.7847E+00  0.7343E+01
 14.100  0.1174E+01  0.8899E+00  0.7550E+01
 14.200  0.1123E+01  0.1035E+01  0.7765E+01
 14.300  0.1120E+01  0.1161E+01  0.7994E+01
 14.400  0.1240E+01  0.1211E+01  0.8239E+01
 14.500  0.1485E+01  0.1168E+01  0.8504E+01
 14.600  0.1735E+01  0.1101E+01  0.8788E+01
 14.700  0.1796E+01  0.1069E+01  0.9074E+01
 14.800  0.1535E+01  0.1035E+01  0.9331E+01
 14.900  0.1023E+01  0.9833E+00  0.9532E+01
 15.000  0.4869E+00  0.9928E+00  0.9680E+01
 15.100  0.1247E+00  0.1130E+01  0.9805E+01
 15.200 -0.1587E-01  0.1370E+01  0.9941E+01
 15.300  0.2656E-02  0.1625E+01  0.1010E+02
 15.400  0.1005E+00  0.1728E+01  0.1029E+02
 15.500  0.2087E+00  0.1512E+01  0.1046E+02
 15.600  0.2666E+00  0.1011E+01  0.1059E+02
 15.700  0.2463E+00  0.4681E+00  0.1066E+02
 15.800  0.1716E+00  0.1209E+00  0.1069E+02
 15.900  0.9803E-01  0.3763E-01  0.1070E+02
 16.000  0.7162E-01  0.1348E+00  0.1072E+02
 16.100  0.9804E-01  0.2627E+00  0.1076E+02
 16.200  0.1478E+00  0.2993E+00  0.1080E+02
 16.300  0.1865E+00  0.2316E+00  0.1084E+02
 16.400  0.1904E+00  0.1458E+00  0.1088E+02
 16.500  0.1551E+00  0.1155E+00  0.1090E+02
 16.600  0.1096E+00  0.1292E+00  0.1093E+02
 16.700  0.9418E-01  0.1411E+00  0.1095E+02
 16.800  0.1139E+00  0.1396E+00  0.1098E+02
 16.900  0.1337E+00  0.1355E+00  0.1100E+02
 17.000  0.1237E+00  0.1318E+00  0.1103E+02
 17.100  0.9644E-01  0.1327E+00  0.1105E+02
 17.200  0.8753E-01  0.1446E+00  0.1108E+02
 17.300  0.1040E+00  0.1546E+00  0.1110E+02
 17.400  0.1200E+00  0.1449E+00  0.1113E+02
 17.500  0.1233E+00  0.1239E+00  0.1115E+02
 17.600  0.1319E+00  0.1124E+00  0.1118E+02
 17.700  0.1638E+00  0.1130E+00  0.1120E+02
 17.800  0.2125E+00  0.1213E+00  0.1124E+02
 17.900  0.2418E+00  0.1416E+00  0.1128E+02
 18.000  0.2101E+00  0.1700E+00  0.1131E+02
 18.100  0.1225E+00  0.1942E+00  0.1135E+02
 18.200  0.3679E-01  0.2098E+00  0.1137E+02
 18.300  0.2510E-02  0.2050E+00  0.1139E+02
 18.400  0.1821E-01  0.1582E+00  0.1141E+02
 18.500  0.4711E-01  0.8059E-01  0.1142E+02
 18.600  0.5922E-01  0.2113E-01  0.1143E+02
 18.700  0.6712E-01  0.1153E-01  0.1144E+02
 18.800  0.1088E+00  0.3690E-01  0.1145E+02
 18.900  0.1786E+00  0.6690E-01  0.1148E+02
 19.000  0.2152E+00  0.9779E-01  0.1151E+02
 19.100  0.1873E+00  0.1443E+00  0.1154E+02
 19.200  0.1359E+00  0.1909E+00  0.1157E+02
 19.300  0.1023E+00  0.1946E+00  0.1160E+02
 19.400  0.7718E-01  0.1517E+00  0.1163E+02
 19.500  0.4593E-01  0.1105E+00  0.1164E+02
 19.600  0.2918E-01  0.9722E-01  0.1166E+02
 19.700  0.5606E-01  0.8691E-01  0.1167E+02
 19.800  0.1178E+00  0.6128E-01  0.1169E+02
 19.900  0.1626E+00  0.4503E-01  0.1171E+02
 20.000  0.1466E+00  0.6814E-01  0.1173E+02
 20.100  0.8494E-01  0.1204E+00  0.1175E+02
 20.200  0.3597E-01  0.1542E+00  0.1177E+02
 20.300  0.3359E-01  0.1342E+00  0.1179E+02
 20.400  0.5642E-01  0.8138E-01  0.1180E+02
 20.500  0.6283E-01  0.4860E-01  0.1181E+02
 20.600  0.4211E-01  0.5307E-01  0.1182E+02
 20.700  0.2149E-01  0.6245E-01  0.1183E+02
 20.800  0.2881E-01  0.4809E-01  0.1184E+02
 20.900  0.6126E-01  0.2261E-01  0.1184E+02
 21.000  0.9180E-01  0.1777E-01  0.1186E+02
 21.100  0.1005E+00  0.4442E-01  0.1187E+02
 21.200  0.9270E-01  0.8174E-01  0.1189E+02
 21.300  0.8149E-01  0.1011E+00  0.1191E+02
 21.400  0.6837E-01  0.9733E-01  0.1192E+02
 21.500  0.5696E-01  0.8652E-01  0.1194E+02
 21.600  0.6215E-01  0.7404E-01  0.1195E+02
 21.700  0.8751E-01  0.5138E-01  0.1196E+02
 21.800  0.1164E+00  0.2599E-01  0.1198E+02
 21.900  0.1373E+00  0.2456E-01  0.1199E+02
 22.000  0.1550E+00  0.6183E-01  0.1202E+02
 22.100  0.1668E+00  0.1227E+00  0.1205E+02
 22.200  0.1594E+00  0.1755E+00  0.1208E+02
 22.300  0.1416E+00  0.1968E+00  0.1211E+02
 22.400  0.1415E+00  0.1845E+00  0.1215E+02
 22.500  0.1600E+00  0.1563E+00  0.1218E+02
 22.600  0.1665E+00  0.1369E+00  0.1221E+02
 22.700  0.1486E+00  0.1395E+00  0.1224E+02
 22.800  0.1265E+00  0.1543E+00  0.1226E+02
 22.900  0.1169E+00  0.1628E+00  0.1229E+02
 23.000  0.1170E+00  0.1567E+00  0.1232E+02
 23.100  0.1244E+00  0.1391E+00  0.1235E+02
 23.200  0.1405E+00  0.1206E+00  0.1237E+02
 23.300  0.1472E+00  0.1188E+00  0.1240E+02
 23.400  0.1177E+00  0.1406E+00  0.1242E+02
 23.500  0.6035E-01  0.1629E+00  0.1245E+02
 23.600  0.2511E-01  0.1471E+00  0.1246E+02
 23.700  0.5509E-01  0.8777E-01  0.1248E+02
 23.800  0.1406E+00  0.3206E-01  0.1250E+02
 23.900  0.2191E+00  0.3651E-01  0.1252E+02
 24.000  0.2280E+00  0.1102E+00  0.1255E+02
 24.100  0.1673E+00  0.1992E+00  0.1259E+02
 24.200  0.9944E-01  0.2308E+00  0.1262E+02
 24.300  0.8273E-01  0.1845E+00  0.1265E+02
 24.400  0.1129E+00  0.1124E+00  0.1267E+02
 24.500  0.1342E+00  0.8099E-01  0.1270E+02
 24.600  0.1090E+00  0.1046E+00  0.1272E+02
 24.700  0.6273E-01  0.1367E+00  0.1274E+02
 24.800  0.4326E-01  0.1265E+00  0.1275E+02
 24.900  0.5846E-01  0.8017E-01  0.1277E+02
 25.000  0.7954E-01  0.4770E-01  0.1278E+02
